TITLE	
DATA TYPE	ULTRAVIOLET SPECTRUM
ORIGIN	JASCO
OWNER	
DATE	15/04/20
TIME	10:43:57
SPECTROMETER/DATA SYSTEM	
LOCALE	1045
RESOLUTION	
DELTAX	-1
XUNITS	NANOMETERS
YUNITS	REFLECTANCE
FIRSTX	  840,0000
LASTX	  190,0000
NPOINTS	     651
FIRSTY	     4,01350
MAXY	     8,49690
MINY	     3,67527
XYDATA
840,0000	4,0135
839,0000	3,95315
838,0000	4,00557
837,0000	3,72962
836,0000	3,98948
835,0000	3,84907
834,0000	3,8289
833,0000	3,91212
832,0000	3,88924
831,0000	3,88856
830,0000	3,93108
829,0000	3,89667
828,0000	3,92858
827,0000	4,02412
826,0000	3,98358
825,0000	3,98825
824,0000	3,94853
823,0000	4,02834
822,0000	4,0871
821,0000	4,0651
820,0000	4,05582
819,0000	3,99849
818,0000	4,08283
817,0000	4,047
816,0000	4,01901
815,0000	3,93412
814,0000	4,06034
813,0000	4,08214
812,0000	4,10311
811,0000	3,99635
810,0000	4,0028
809,0000	4,03112
808,0000	4,09188
807,0000	4,0276
806,0000	4,05587
805,0000	3,99597
804,0000	4,01473
803,0000	4,04311
802,0000	4,02779
801,0000	3,97182
800,0000	4,0378
799,0000	4,02508
798,0000	4,07101
797,0000	4,01684
796,0000	4,02375
795,0000	4,00607
794,0000	4,05724
793,0000	4,08434
792,0000	4,01395
791,0000	3,9907
790,0000	4,03562
789,0000	4,06311
788,0000	4,01848
787,0000	4,0032
786,0000	4,05128
785,0000	3,98874
784,0000	4,02867
783,0000	4,01904
782,0000	4,01177
781,0000	3,98382
780,0000	3,95589
779,0000	4,06667
778,0000	4,07314
777,0000	4,02845
776,0000	4,05239
775,0000	4,03117
774,0000	4,0472
773,0000	4,03282
772,0000	3,98609
771,0000	4,01583
770,0000	4,01523
769,0000	4,01822
768,0000	4,02712
767,0000	4,03805
766,0000	4,01801
765,0000	4,05031
764,0000	4,0117
763,0000	3,9841
762,0000	3,97246
761,0000	4,03982
760,0000	3,94233
759,0000	3,95643
758,0000	4,0139
757,0000	3,97518
756,0000	4,04065
755,0000	4,03168
754,0000	3,9809
753,0000	3,96642
752,0000	3,97392
751,0000	3,9906
750,0000	3,97521
749,0000	3,99824
748,0000	4,0436
747,0000	3,98834
746,0000	4,00129
745,0000	4,01254
744,0000	3,99113
743,0000	3,976
742,0000	4,00548
741,0000	3,99541
740,0000	3,95851
739,0000	4,00681
738,0000	3,99497
737,0000	3,9729
736,0000	3,96418
735,0000	3,97878
734,0000	3,99027
733,0000	4,0057
732,0000	3,98564
731,0000	4,01534
730,0000	4,01354
729,0000	3,97824
728,0000	3,99787
727,0000	4,00437
726,0000	3,968
725,0000	3,97205
724,0000	3,98157
723,0000	3,96275
722,0000	3,98754
721,0000	4,02188
720,0000	3,96904
719,0000	4,00355
718,0000	3,99282
717,0000	4,00322
716,0000	3,99637
715,0000	3,96387
714,0000	4,00328
713,0000	4,00041
712,0000	3,987
711,0000	3,97955
710,0000	4,00498
709,0000	4,00474
708,0000	3,99178
707,0000	3,99117
706,0000	4,00885
705,0000	4,01263
704,0000	3,99208
703,0000	4,01144
702,0000	4,0201
701,0000	4,02211
700,0000	4,00339
699,0000	4,01797
698,0000	4,01229
697,0000	4,02558
696,0000	4,05933
695,0000	4,04547
694,0000	4,03503
693,0000	4,04468
692,0000	4,0646
691,0000	4,04282
690,0000	4,04856
689,0000	4,04623
688,0000	4,04001
687,0000	4,01811
686,0000	4,00743
685,0000	4,01151
684,0000	4,02184
683,0000	3,97626
682,0000	4,00875
681,0000	3,97039
680,0000	3,93663
679,0000	3,94949
678,0000	3,96219
677,0000	3,94721
676,0000	3,92138
675,0000	3,9499
674,0000	3,94106
673,0000	3,9594
672,0000	3,94038
671,0000	3,95395
670,0000	3,92663
669,0000	3,94039
668,0000	3,94679
667,0000	3,94676
666,0000	3,95614
665,0000	3,94874
664,0000	3,94465
663,0000	3,93079
662,0000	3,92452
661,0000	3,9342
660,0000	3,94385
659,0000	3,92735
658,0000	3,92327
657,0000	3,93929
656,0000	3,92664
655,0000	3,9264
654,0000	3,95194
653,0000	3,92522
652,0000	3,9393
651,0000	3,93327
650,0000	3,93599
649,0000	3,93272
648,0000	3,93174
647,0000	3,94065
646,0000	3,945
645,0000	3,91176
644,0000	3,90863
643,0000	3,91692
642,0000	3,90128
641,0000	3,91927
640,0000	3,89506
639,0000	3,92673
638,0000	3,90282
637,0000	3,91698
636,0000	3,91375
635,0000	3,91836
634,0000	3,91608
633,0000	3,91278
632,0000	3,90579
631,0000	3,91043
630,0000	3,9207
629,0000	3,91648
628,0000	3,91023
627,0000	3,90788
626,0000	3,89661
625,0000	3,89586
624,0000	3,89656
623,0000	3,87862
622,0000	3,91523
621,0000	3,89237
620,0000	3,91052
619,0000	3,88933
618,0000	3,9001
617,0000	3,89523
616,0000	3,89807
615,0000	3,90145
614,0000	3,88967
613,0000	3,90617
612,0000	3,88649
611,0000	3,89547
610,0000	3,90214
609,0000	3,89112
608,0000	3,9041
607,0000	3,86366
606,0000	3,87939
605,0000	3,89994
604,0000	3,86726
603,0000	3,87673
602,0000	3,88427
601,0000	3,89469
600,0000	3,89146
599,0000	3,88375
598,0000	3,8643
597,0000	3,8977
596,0000	3,88972
595,0000	3,90698
594,0000	3,88402
593,0000	3,88526
592,0000	3,87008
591,0000	3,87627
590,0000	3,87589
589,0000	3,8953
588,0000	3,88414
587,0000	3,88366
586,0000	3,88848
585,0000	3,87247
584,0000	3,88572
583,0000	3,87305
582,0000	3,85556
581,0000	3,88459
580,0000	3,89205
579,0000	3,84724
578,0000	3,86835
577,0000	3,86283
576,0000	3,89126
575,0000	3,87198
574,0000	3,8727
573,0000	3,87761
572,0000	3,88603
571,0000	3,84065
570,0000	3,88418
569,0000	3,85275
568,0000	3,84857
567,0000	3,86441
566,0000	3,87819
565,0000	3,86883
564,0000	3,88708
563,0000	3,87618
562,0000	3,85901
561,0000	3,84813
560,0000	3,87033
559,0000	3,86902
558,0000	3,87058
557,0000	3,85913
556,0000	3,87315
555,0000	3,84771
554,0000	3,85618
553,0000	3,85794
552,0000	3,86576
551,0000	3,87388
550,0000	3,85385
549,0000	3,83713
548,0000	3,84497
547,0000	3,85157
546,0000	3,8666
545,0000	3,89248
544,0000	3,82754
543,0000	3,86267
542,0000	3,84274
541,0000	3,85051
540,0000	3,84822
539,0000	3,86717
538,0000	3,83407
537,0000	3,84107
536,0000	3,86502
535,0000	3,83917
534,0000	3,84961
533,0000	3,85266
532,0000	3,8527
531,0000	3,8665
530,0000	3,87013
529,0000	3,8384
528,0000	3,83147
527,0000	3,84315
526,0000	3,85138
525,0000	3,85844
524,0000	3,837
523,0000	3,85107
522,0000	3,85945
521,0000	3,85686
520,0000	3,85434
519,0000	3,85289
518,0000	3,84596
517,0000	3,82757
516,0000	3,85977
515,0000	3,83231
514,0000	3,85513
513,0000	3,83357
512,0000	3,83772
511,0000	3,83664
510,0000	3,85524
509,0000	3,82362
508,0000	3,84475
507,0000	3,82763
506,0000	3,82789
505,0000	3,84217
504,0000	3,825
503,0000	3,85304
502,0000	3,85589
501,0000	3,85315
500,0000	3,8512
499,0000	3,84469
498,0000	3,84567
497,0000	3,83675
496,0000	3,84706
495,0000	3,8593
494,0000	3,83516
493,0000	3,84677
492,0000	3,83942
491,0000	3,83307
490,0000	3,82456
489,0000	3,8381
488,0000	3,84927
487,0000	3,84043
486,0000	3,85923
485,0000	3,82007
484,0000	3,86157
483,0000	3,83946
482,0000	3,86172
481,0000	3,83581
480,0000	3,85333
479,0000	3,85229
478,0000	3,8634
477,0000	3,87606
476,0000	3,85457
475,0000	3,8632
474,0000	3,84753
473,0000	3,84717
472,0000	3,87708
471,0000	3,85915
470,0000	3,88267
469,0000	3,83949
468,0000	3,8647
467,0000	3,89838
466,0000	3,87729
465,0000	3,8634
464,0000	3,85563
463,0000	3,86997
462,0000	3,87531
461,0000	3,89626
460,0000	3,87225
459,0000	3,88156
458,0000	3,85998
457,0000	3,86468
456,0000	3,89206
455,0000	3,86182
454,0000	3,88517
453,0000	3,8508
452,0000	3,85719
451,0000	3,85786
450,0000	3,84206
449,0000	3,83022
448,0000	3,83653
447,0000	3,82936
446,0000	3,83741
445,0000	3,82102
444,0000	3,85216
443,0000	3,83624
442,0000	3,85566
441,0000	3,8477
440,0000	3,82571
439,0000	3,82618
438,0000	3,8138
437,0000	3,8225
436,0000	3,80268
435,0000	3,81059
434,0000	3,82487
433,0000	3,85305
432,0000	3,84409
431,0000	3,83927
430,0000	3,83614
429,0000	3,85959
428,0000	3,86544
427,0000	3,84591
426,0000	3,85009
425,0000	3,90478
424,0000	3,88498
423,0000	3,91665
422,0000	3,8814
421,0000	3,90742
420,0000	3,89642
419,0000	3,8714
418,0000	3,86158
417,0000	3,85533
416,0000	3,8272
415,0000	3,89322
414,0000	3,83574
413,0000	3,85752
412,0000	3,90011
411,0000	3,87489
410,0000	3,8433
409,0000	3,81024
408,0000	3,81966
407,0000	3,87934
406,0000	3,87733
405,0000	3,87665
404,0000	3,84866
403,0000	3,80927
402,0000	3,84584
401,0000	3,88037
400,0000	3,87747
399,0000	3,85857
398,0000	3,86394
397,0000	3,89544
396,0000	3,88854
395,0000	3,86148
394,0000	3,86003
393,0000	3,87535
392,0000	3,89709
391,0000	3,87682
390,0000	3,90074
389,0000	3,82919
388,0000	3,89422
387,0000	3,86511
386,0000	3,85299
385,0000	3,87299
384,0000	3,87191
383,0000	3,88711
382,0000	3,90472
381,0000	3,88825
380,0000	3,83705
379,0000	3,85401
378,0000	3,90544
377,0000	3,89591
376,0000	3,95091
375,0000	3,89463
374,0000	3,83156
373,0000	3,89234
372,0000	3,96381
371,0000	3,91608
370,0000	3,85034
369,0000	3,92116
368,0000	3,85948
367,0000	3,97695
366,0000	3,93126
365,0000	3,9071
364,0000	3,95228
363,0000	3,94406
362,0000	3,89795
361,0000	3,93666
360,0000	3,92587
359,0000	3,88573
358,0000	3,88504
357,0000	3,93245
356,0000	3,87418
355,0000	3,95536
354,0000	3,91602
353,0000	3,89781
352,0000	3,91896
351,0000	3,92436
350,0000	3,94814
349,0000	3,91081
348,0000	3,96625
347,0000	3,94079
346,0000	3,86951
345,0000	3,99388
344,0000	3,88934
343,0000	3,96659
342,0000	3,93958
341,0000	3,98928
340,0000	4,05584
339,0000	4,01638
338,0000	3,97667
337,0000	4,00457
336,0000	4,0254
335,0000	4,04956
334,0000	4,0555
333,0000	3,98674
332,0000	4,12454
331,0000	4,03368
330,0000	4,04732
329,0000	4,09797
328,0000	3,96047
327,0000	4,07219
326,0000	3,9999
325,0000	4,0381
324,0000	4,12933
323,0000	4,10375
322,0000	4,03952
321,0000	4,10375
320,0000	4,11639
319,0000	4,10666
318,0000	4,20061
317,0000	4,12962
316,0000	4,04369
315,0000	4,16267
314,0000	4,12234
313,0000	4,16333
312,0000	4,12262
311,0000	4,19616
310,0000	4,26576
309,0000	4,19336
308,0000	4,19845
307,0000	4,1654
306,0000	4,18202
305,0000	4,20771
304,0000	4,20229
303,0000	4,23207
302,0000	4,28124
301,0000	4,26456
300,0000	4,26938
299,0000	4,24745
298,0000	4,1596
297,0000	4,32405
296,0000	4,3162
295,0000	4,33937
294,0000	4,29034
293,0000	4,29122
292,0000	4,37588
291,0000	4,32796
290,0000	4,41987
289,0000	4,37367
288,0000	4,45584
287,0000	4,4171
286,0000	4,42766
285,0000	4,49802
284,0000	4,44173
283,0000	4,49386
282,0000	4,56051
281,0000	4,43542
280,0000	4,54003
279,0000	4,51069
278,0000	4,51403
277,0000	4,46913
276,0000	4,58964
275,0000	4,71429
274,0000	4,53615
273,0000	4,59797
272,0000	4,64253
271,0000	4,66109
270,0000	4,56475
269,0000	4,60092
268,0000	4,7198
267,0000	4,63234
266,0000	4,65799
265,0000	4,71877
264,0000	4,70106
263,0000	4,62218
262,0000	4,62386
261,0000	4,77655
260,0000	4,77686
259,0000	4,79687
258,0000	4,7366
257,0000	4,77904
256,0000	4,77258
255,0000	4,86665
254,0000	4,75143
253,0000	4,85251
252,0000	4,82953
251,0000	4,85787
250,0000	4,85627
249,0000	5,01251
248,0000	4,96145
247,0000	5,00658
246,0000	5,07363
245,0000	4,99572
244,0000	4,99203
243,0000	5,05048
242,0000	5,12646
241,0000	5,07276
240,0000	5,17434
239,0000	5,18348
238,0000	5,24131
237,0000	5,27578
236,0000	5,34938
235,0000	5,24445
234,0000	5,38608
233,0000	5,44271
232,0000	5,45708
231,0000	5,58533
230,0000	5,50259
229,0000	5,53684
228,0000	5,60517
227,0000	5,71499
226,0000	5,72512
225,0000	5,75662
224,0000	5,82633
223,0000	5,90829
222,0000	5,78668
221,0000	5,93764
220,0000	5,9196
219,0000	6,19798
218,0000	5,99078
217,0000	5,98863
216,0000	6,20298
215,0000	6,21336
214,0000	6,47541
213,0000	6,42823
212,0000	6,39478
211,0000	6,57788
210,0000	6,43738
209,0000	6,6781
208,0000	7,10853
207,0000	6,73092
206,0000	7,13606
205,0000	7,28073
204,0000	7,52491
203,0000	7,08106
202,0000	7,41089
201,0000	7,63243
200,0000	7,93229
199,0000	7,97934
198,0000	8,4969
197,0000	8,08124
196,0000	7,58782
195,0000	8,22883
194,0000	7,15707
193,0000	7,02754
192,0000	6,71899
191,0000	7,84349
190,0000	3,67527

##### Extended Information
[Comments]
Sample name
Comment
User
Division
Company	Politechnika Swietokrzyska

[Detailed Information]
Creation date	2015-04-20 10:43

Data array type	Linear data array
Horizontal axis	Wavelength [nm]
Vertical axis	%R
Start	840 nm
End	190 nm
Data interval	1 nm
Data points	651     

[Measurement Information]
Instrument name	UV-VIS-NIR
Model name	V-670
Serial No.	B124961154

Accessory	ARSN-733
Accessory S/N	A006461124

Measurement date	2015-04-20 10:43

Parameter file	C:\Users\PolSwi\Desktop\Widma\HAp\parameter - 190-840 - sp100f.uvsp
Photometric mode	%R
Measurement range	840 - 190 nm
Data interval	1 nm
UV/Vis bandwidth	1.0 nm
NIR bandwidth	4.0 nm
Response	Fast
Scan speed	100 nm/min
Change source at	340 nm
Change grating at	850 nm
Light source	D2/WI
Filter exchange	Step
Correction	Baseline

